2theta chi X Y I
56.141046   4.312893   892.561704   1650.557085   21671.151
63.381111   34.425722   234.673618   1575.386733   14934.972
57.640556   -15.687792   1277.108164   1637.724264   14613.342
66.601677   -12.199751   1209.462151   1405.409243   10697.816
55.610153   23.499255   504.440806   1726.502215   10307.994
75.498950   21.827046   543.910387   1223.299477   9774.197
87.825530   -1.725986   1011.841192   966.632270   6770.166
79.984861   15.543225   676.900442   1121.336303   6446.553
82.183744   11.851606   751.111234   1075.354758   5345.375
64.528525   2.950974   919.856600   1440.129123   4726.882
72.667620   1.491553   948.751199   1262.662418   4623.170
71.127193   26.913879   427.553574   1335.451023   4526.101
71.552431   -10.099522   1169.302605   1293.102306   4429.105
57.653192   26.075814   445.781286   1681.757502   4250.109
104.870731   11.460417   761.633650   629.335728   4040.559
51.406376   18.676353   608.247156   1830.373829   3848.446
55.840680   -27.052684   1523.860051   1751.039688   3461.701
76.739322   -7.697958   1123.795902   1183.680371   3143.384
64.453650   -29.453732   1584.742593   1522.650697   3094.031
59.389222   -33.340940   1683.300102   1694.618999   3090.967
90.003631   -18.772427   1347.892443   927.975878   3027.120
112.707562   -9.497346   1164.889149   465.434680   2805.072
65.972457   17.217726   640.818748   1426.917351   2640.763
84.295017   7.758840   831.094311   1033.290912   2622.037
53.923722   12.192705   740.317206   1727.283419   2526.969
49.815622   -18.435456   1331.269403   1887.155722   2524.562
107.188681   -7.364229   1122.481172   587.519161   2450.713
52.171010   -38.333401   1822.616878   1997.540384   2434.326
78.868682   33.925483   249.694750   1176.231742   2357.273
93.415345   33.344382   266.608089   842.271679   2133.467
64.480759   -3.187333   1035.700398   1442.236103   2127.679
118.549078   31.831748   309.098949   222.935065   1988.466
89.837005   -12.787229   1225.464253   930.270145   1928.810
79.667204   41.688064   13.810005   1182.002502   1899.855
76.592336   0.735194   963.639420   1183.083564   1884.507
63.566974   9.242332   799.561312   1467.917060   1775.487
99.540466   19.061659   606.038375   729.377379   1711.686
87.263376   23.774194   501.794920   978.146012   1686.402
57.576850   -5.051060   1069.607085   1614.124385   1675.262
110.074372   17.360820   642.983422   506.542738   1673.125
101.219267   -5.349838   1082.798715   709.779581   1657.688
80.572283   -2.417357   1023.828175   1105.499183   1585.821
83.833729   33.741143   255.107618   1060.360682   1522.225
89.499675   -9.890937   1168.403919   936.277667   1519.905
115.408423   8.940305   812.460925   401.025883   1468.669
58.255936   12.213780   740.652365   1606.591233   1444.281
66.624703   -15.665287   1278.806033   1412.621326   1436.848
60.958145   3.545727   907.985872   1525.431017   1381.196
113.840418   22.739246   527.782001   400.716163   1375.122
96.440389   4.112614   902.459249   801.862727   1364.501
65.833423   12.052852   744.992566   1419.220108   1363.565
61.702572   19.934562   583.190037   1540.548174   1362.253
94.071369   25.088761   472.445162   836.090441   1326.417
69.068780   29.084530   374.779484   1393.585144   1299.048
66.125995   -20.710994   1384.059403   1439.577274   1281.883
61.587109   -38.026966   1817.508639   1672.631504   1159.286
79.903800   -21.647400   1407.515901   1135.884976   1035.587
82.931423   26.058345   448.863624   1070.619832   928.411
89.557863   -24.916619   1482.887954   938.307593   899.223
92.166557   39.342250   91.175968   865.356848   896.444
54.441902   41.602700   15.409618   1947.339260   893.410
86.591600   -37.105666   1798.337843   1012.412840   875.351
70.589195   24.515859   483.286399   1340.097865   860.392
93.925291   28.719166   385.990309   835.808799   788.765
99.307163   6.378637   859.582880   745.354154   766.567
86.079762   38.117841   128.901556   1013.045039   760.330
94.410419   22.895863   522.207010   830.904506   755.275
53.264980   -9.274416   1149.332184   1742.035687   703.830
100.314610   -26.411944   1520.241677   708.810676   684.924
89.669594   -11.130530   1192.688573   933.226814   675.536
93.495940   -15.602516   1282.827533   858.767334   658.414
86.046219   28.015373   402.501485   1005.603877   658.292
90.003134   -16.755418   1305.815828   927.663382   656.439
117.744974   3.937028   909.051819   351.128712   651.508
62.124832   -29.919162   1595.602307   1588.694679   617.760
75.970193   -27.578041   1542.174582   1234.529694   595.259
102.498758   41.796542   11.093810   594.839808   582.849
51.324193   -25.884867   1494.931172   1887.805993   552.893
103.029263   9.672810   796.435926   668.965445   550.299
77.145748   -30.626901   1617.820728   1217.045045   547.421
99.740679   -22.448645   1429.418029   727.094959   538.452
88.666337   -29.851685   1601.187131   959.083650   533.233
101.569415   26.750613   434.257878   672.157314   531.324
101.541630   8.308488   822.727082   700.008321   528.912
68.036473   -43.290714   1992.127506   1531.307317   522.675
67.849960   30.286046   344.616121   1429.699651   521.727
109.917046   -12.821908   1229.904808   523.345685   514.369
62.871734   -13.694910   1238.303455   1496.775031   508.561
124.639596   6.007751   870.714187   167.843615   504.064
76.275170   -33.214959   1685.330339   1246.444301   498.617
73.508250   40.438089   55.038674   1338.641423   480.886
61.885055   -23.443500   1442.830854   1557.535168   480.733
118.950521   -23.594090   1459.871935   271.927128   480.311
74.634756   -8.700085   1142.737496   1227.230269   474.296
93.545828   20.048473   584.356905   850.654472   471.156
105.144488   -20.885516   1396.295321   613.805028   460.865
78.807813   -25.530972   1494.600150   1166.501234   456.125
98.880568   33.077308   274.238550   717.430882   454.602
67.520123   16.660860   652.505846   1389.531075   447.254
102.749011   -1.006065   1000.454992   679.719791   431.680
69.568065   10.109504   783.611352   1332.832800   430.158
47.256081   -10.315762   1167.766853   1938.458986   421.534
122.311009   -14.187552   1260.174540   217.158838   415.087
106.689574   32.662114   286.004386   532.942998   414.473
53.591720   -24.795588   1470.749389   1804.744315   406.793
74.920187   1.057583   957.295515   1216.623130   402.574
72.602130   32.544288   286.494973   1321.790387   402.250
90.140919   11.847196   752.166501   920.749512   401.908
68.499462   27.622779   410.350875   1401.314466   396.334
75.824523   34.031139   246.565097   1249.272922   395.878
68.116161   -26.369398   1511.462645   1413.779504   395.532
93.471946   16.236174   664.272374   854.274617   394.515
78.925756   -15.359130   1275.117659   1147.197403   385.980
62.547189   9.263872   798.983569   1492.373835   384.325
62.432714   -4.585634   1061.785528   1491.540927   382.988
121.271369   -34.895309   1745.462106   124.464074   378.921
80.702793   -15.627502   1280.918168   1111.579122   373.470
88.382318   17.993547   627.305396   954.693807   371.359
77.507194   10.503760   776.988374   1167.543070   368.729
92.002766   15.888109   671.237865   883.432977   365.866
95.715925   28.643154   388.014580   796.958735   354.456
89.892574   -21.396733   1404.162585   930.663260   349.858
68.672983   -34.380163   1714.785199   1442.001854   345.101
114.750380   33.486590   264.427541   318.327433   342.757
70.890652   -23.867746   1454.696349   1338.479389   341.618
65.642683   31.459934   314.340416   1493.335324   340.696
92.423026   -14.242720   1255.063221   880.000816   337.785
107.164181   13.887773   713.606555   577.565397   336.080
71.979718   4.009121   901.002257   1277.316885   333.384
112.493093   20.653323   573.437496   441.014066   331.723
72.603625   38.299518   122.547763   1350.213574   330.315
58.831235   10.563522   773.122376   1587.817171   329.326
73.629336   -9.642332   1160.801860   1248.938791   327.809
67.233199   41.638075   14.928495   1524.191107   326.914
108.127893   -26.373331   1521.276655   532.309328   326.671
98.817893   -23.566990   1454.229943   745.207515   326.270
111.725521   -35.697184   1764.926673   397.653629   325.770
62.081036   -19.083779   1348.409723   1533.528658   325.450
97.672606   5.068652   884.413108   777.757281   320.657
129.348484   7.734427   838.401423   22.221986   318.766
72.222836   8.660361   812.090715   1274.706686   317.304
74.758737   -20.098799   1372.921683   1242.111127   311.483
113.593721   -18.011636   1336.840076   428.605710   310.717
98.477470   26.028065   451.015908   741.166711   310.030
60.308377   14.736909   690.663890   1559.538053   309.625
94.710004   2.841923   926.359922   835.346153   306.488
106.918268   11.570251   759.736730   586.287151   303.563
113.623119   -22.424207   1432.151338   414.196272   302.473
115.319458   25.211167   471.793600   352.500450   300.545
104.788542   1.017092   962.431708   638.378807   299.822
54.690569   -10.908165   1181.392470   1704.834081   297.961
128.477084   -5.738662   1095.701701   55.591665   293.702
98.392368   -11.741553   1206.262492   763.464418   290.888
47.202048   -1.779423   1005.305139   1923.309658   287.655
58.537909   38.466691   116.464229   1761.229756   285.279
89.402044   10.415665   780.204952   935.190094   284.936
112.986436   2.742757   930.978911   463.199770   282.490
117.722809   -27.485357   1550.578627   284.928139   281.193
73.350666   19.811010   587.262808   1266.008398   280.892
104.424618   -28.647817   1575.224990   611.472579   279.748
127.614603   1.779545   952.106509   85.058842   277.905
111.282044   26.446969   442.421057   448.141653   275.134
78.191482   18.225491   621.325519   1160.694948   274.228
101.016031   -14.905016   1270.066093   708.798270   273.853
102.620042   36.915344   166.078402   614.862054   271.021
127.235371   23.309060   516.832090   19.615822   270.468
77.025280   33.287000   266.944232   1217.948108   268.779
52.871177   3.650074   904.436275   1742.741149   267.012
112.612079   41.871232   9.007889   309.190547   264.999
89.043635   -28.007246   1555.736223   950.136334   262.802
91.496766   -13.139433   1232.778160   898.075406   260.090
115.265069   -10.612616   1187.257910   404.658726   255.888
77.215750   -17.397704   1316.591131   1185.133760   254.655
96.546339   37.255636   155.568556   762.464959   254.283
108.046250   28.426632   394.447417   518.144410   252.015
105.523621   -41.461132   1942.588518   529.848628   250.626
97.954103   -17.937296   1331.926585   768.580132   249.198
85.406124   -39.225806   1862.791230   1044.352405   249.060
69.130852   14.850952   689.602707   1349.379570   247.818
88.186307   -31.954134   1655.074585   970.849962   247.693
89.953363   -15.157397   1273.103684   928.388172   244.335
80.861270   -38.824168   1848.753625   1155.397633   243.277
106.241727   -36.075995   1774.091332   539.684108   242.020
102.397560   32.886314   279.650699   635.605686   241.525
109.882787   -30.353755   1619.513154   474.566597   239.703
108.398178   -16.618736   1306.653668   550.596100   239.591
117.096180   -27.313556   1546.237241   302.964462   239.528
83.478493   9.448780   798.307606   1049.343464   236.393
92.242758   10.170271   785.353091   880.588860   235.209
97.820701   14.556158   698.986134   769.102302   232.805
103.661088   -6.142022   1098.369833   660.720655   229.589
50.502900   -5.680770   1079.863828   1818.829454   227.210
120.349315   0.754338   970.072630   287.925792   225.904
98.667887   37.900170   136.266447   709.059772   225.344
73.734894   -38.242033   1828.466066   1333.384325   225.145
65.842392   20.471222   572.229404   1439.362057   224.539
122.393790   21.285177   561.002580   180.534635   224.288
124.292798   10.919672   775.229383   167.268413   222.933
66.022388   -34.144654   1707.434702   1511.197875   216.191
98.461840   -36.542815   1785.304941   730.442970   216.043
62.325027   22.975779   517.024291   1536.752151   214.584
119.239112   23.154784   519.160680   259.044640   212.283
89.229627   -8.185311   1135.278190   941.139125   210.504
73.459399   -20.854295   1388.868088   1272.100652   210.409
80.845254   20.791282   567.030181   1108.680722   208.657
124.482101   -1.578553   1015.259370   177.277454   208.655
125.902191   -16.401709   1306.479327   105.559456   205.879
75.770469   -34.029004   1707.309389   1261.790114   205.816
65.946545   -4.236622   1055.838428   1409.475041   205.625
69.343048   -30.941417   1623.661204   1405.208221   205.515
102.700553   -36.294466   1779.338915   627.701298   202.687
72.838620   25.006495   472.287310   1289.829063   198.932
104.912173   -15.544644   1283.858888   627.380561   192.841
93.036300   13.641736   716.820637   864.016537   192.602
75.801295   -40.908859   1913.747426   1294.457004   191.961
98.030920   -4.404782   1064.252628   772.338354   191.741
127.205244   18.827151   614.665295   48.265710   190.622
119.114329   11.104151   770.708358   306.072549   189.053
93.839962   -36.210984   1774.211429   841.101603   187.284
110.037290   6.254338   863.490309   525.658547   186.884
81.132268   -12.541973   1219.030751   1100.118649   186.597
69.462823   2.088296   936.972906   1330.200488   185.629
57.097917   39.592952   81.210546   1823.239588   183.935
62.659252   21.626849   546.794165   1522.510849   181.440
79.415303   -6.358498   1098.566625   1129.680054   180.744
83.944913   26.504290   438.471373   1049.443691   180.290
71.600842   -16.849984   1304.112177   1303.559632   179.575
123.856101   14.314440   707.439859   169.143356   179.504
114.956063   -15.498605   1285.068284   402.387881   177.008
120.580791   -4.580773   1071.646958   280.750753   176.778
104.068355   -18.024958   1335.013824   641.794821   171.341
105.402365   35.628462   203.787377   551.039562   170.945
100.554000   22.345768   535.053443   703.162040   168.128
67.001862   -37.852185   1814.291665   1512.170131   166.726
102.900731   -32.308839   1668.428899   636.227611   166.705
81.521451   16.257807   662.477020   1090.917344   165.062
73.579313   24.143295   492.075430   1270.777045   164.820
101.836957   -30.137959   1611.795117   666.961498   162.996
119.647677   9.277853   806.578423   296.321075   162.494
49.341070   5.334936   871.743060   1853.995896   161.381
72.293867   -22.835189   1431.949866   1303.297640   161.271
116.935861   20.499757   577.323914   331.973811   160.707
88.752815   9.251879   802.798762   947.767812   160.106
78.307865   -24.259922   1465.329676   1174.616002   158.573
109.242825   -7.651064   1128.389766   543.682851   157.746
89.357072   -8.946479   1150.023465   938.841173   156.315
102.834157   -17.355473   1320.771595   668.702509   155.730
116.082395   -1.635351   1014.642117   392.915698   154.044
108.052617   14.898057   693.314796   556.608946   151.830
124.712476   -22.206199   1430.455077   113.513428   149.500
97.322172   -7.547915   1124.323656   785.710896   149.468
89.788452   -22.449526   1427.281719   932.988256   148.805
80.902146   -13.271352   1233.490017   1105.309379   148.495
75.779359   6.587227   852.442645   1200.283682   148.367
96.300168   -19.466225   1363.872026   801.145957   147.399
122.671147   -34.418144   1732.552162   83.947482   145.996
91.482857   41.730985   12.855014   880.188498   145.170
71.462955   13.366255   719.710892   1295.931056   143.070
124.363251   9.283329   807.306389   169.372782   142.944
96.134351   -33.024561   1685.695868   791.578799   142.208
124.754629   -12.435129   1225.594525   153.254073   141.861
61.259183   10.565715   773.476127   1526.054205   141.712
81.284023   29.558578   364.104006   1111.302102   141.678
110.533880   -8.628973   1147.564873   514.815254   141.213
78.860711   17.244078   641.843545   1145.789811   139.974
55.839380   22.684498   522.620674   1714.985398   139.800
121.858375   -19.969135   1380.623608   208.404772   139.065
104.399696   23.990593   498.591406   616.333895   138.973
99.978019   15.560978   678.838889   724.713860   137.853
109.514694   1.960024   945.284686   539.658524   135.705
103.437021   -33.817949   1709.373445   618.513399   135.492
85.261889   5.558387   873.396502   1014.618807   135.159
95.944048   30.093467   351.885804   789.856814   134.931
94.997480   -1.568444   1009.929186   830.578464   133.195
121.465978   14.325177   706.826998   235.560671   132.493
102.945643   -40.331367   1904.078517   604.805075   132.403
116.753624   -11.304826   1201.221734   367.740510   132.311
85.969561   31.250562   321.484902   1009.452364   131.650
73.749863   -43.391020   1998.017953   1366.633632   130.349
87.336050   35.216377   214.301189   981.050211   130.171
92.905240   -12.614274   1222.573750   870.697036   129.458
86.906991   6.130765   862.679581   983.208034   128.422
86.073950   -21.073144   1396.320418   1008.101946   126.845
84.087468   23.217679   513.994523   1043.695739   126.017
101.731937   0.451172   972.690524   699.743937   125.824
103.469431   4.834489   889.691955   663.563583   124.447
96.015185   -40.302345   1900.750985   782.391467   123.478
95.480214   3.397557   915.919653   820.488111   122.416
101.362941   13.342545   723.811049   699.072425   122.384
126.330374   -6.546560   1110.703083   119.857719   121.508
54.212024   14.326826   697.921753   1725.510234   121.503
64.655212   -17.188452   1309.537680   1463.367113   120.829
107.684531   -21.580896   1412.064556   556.023543   120.599
47.149224   14.290980   697.278764   1954.005200   119.636
110.807660   32.400700   293.325480   430.603212   118.452
124.340755   26.536338   441.850652   89.065317   118.443
100.929237   -1.135702   1002.630279   715.777964   118.354
98.633051   16.543792   658.533413   750.896038   117.972
111.218874   14.994286   691.773832   486.152807   116.884
122.598318   -24.505306   1481.793504   163.672087   115.137
85.721147   4.305151   897.331399   1005.874875   114.987
90.796751   -31.419452   1641.795474   912.639628   114.328
100.814030   -8.841144   1149.921293   716.719991   114.031
119.535082   -41.543431   1951.136947   107.930751   113.778
117.421458   -19.188912   1362.696656   330.493549   112.128
112.449982   7.406222   841.701313   471.250943   111.785
104.878605   -6.637493   1108.087593   635.762515   111.766
57.605539   -16.994082   1303.769883   1643.633975   111.391
93.113909   -30.301166   1613.672066   861.762890   111.066
87.308811   -8.533816   1141.692728   977.968248   111.046
96.247445   32.495538   289.621537   779.110997   110.834
121.761526   -7.816120   1134.137912   246.189219   109.426
72.923118   3.347134   913.693516   1257.570796   108.966
107.582635   -0.589389   993.323126   581.091250   108.695
100.766560   -25.729980   1504.324553   700.123748   108.453
67.269995   2.484991   929.121890   1378.058271   105.064
113.395743   -43.094545   2002.573192   288.284842   103.706
112.089130   -0.164046   986.005262   484.162184   103.518
117.266023   15.922890   673.653428   339.829828   103.286
75.530488   36.586928   174.036586   1266.626075   102.947
72.149798   21.946702   540.919556   1297.300246   102.934
123.840945   -7.051813   1119.843123   190.655113   102.880
92.242944   -1.753109   1013.014271   882.991800   102.681
66.240355   38.377645   119.744701   1524.983430   99.778
99.381498   -1.250760   1004.573478   746.086280   99.756
97.993883   -28.363212   1566.595654   756.557816   97.954
86.450625   -25.803070   1502.707103   1003.881664   97.611
113.679681   24.109289   496.905599   399.038296   97.020
68.172654   -14.432063   1254.224396   1374.365064   96.366
116.053668   -20.414895   1388.685324   360.925875   95.715
96.603874   -9.793667   1167.720872   799.219348   94.907
109.518944   -26.921188   1534.671138   497.380566   94.320
86.192685   -7.457278   1120.751008   999.019538   93.031
55.536617   -42.805792   1969.310552   1940.464395   92.962
54.797202   -30.868378   1616.975347   1816.096976   92.648
94.010313   22.184745   537.942441   839.719691   91.887
78.118465   -27.845039   1549.140605   1187.096875   91.825
111.808287   36.638370   174.893353   376.696888   91.637
103.362479   24.610668   484.344710   637.712449   91.601
128.389761   -18.128145   1343.335383   19.250073   88.719
67.072342   31.044383   325.201955   1453.547839   88.230
84.912866   20.882019   565.493057   1025.249277   88.179
119.290092   -12.564940   1226.819432   301.748603   88.158
105.474316   40.294870   61.284353   523.776159   88.114
107.485516   6.533256   857.760060   579.856305   87.392
82.339897   34.247132   241.086036   1095.716629   87.366
78.267202   8.227206   821.275482   1151.140079   86.894
119.538772   15.408688   684.512932   283.289966   86.608
48.555032   17.108102   640.333804   1917.835904   85.518
98.795625   -19.924616   1374.184326   749.658025   83.546
80.254426   -26.802109   1524.730295   1137.708810   83.538
52.803714   -17.407653   1310.917666   1785.274173   82.731
114.960177   0.137338   980.786615   419.111666   82.286
76.957726   12.015918   747.215573   1179.735992   82.142
77.880678   0.471421   968.816469   1157.563426   81.583
68.645731   -28.320237   1558.152307   1409.630167   81.469
113.938571   -38.452409   1848.203239   315.064943   81.329
100.312414   7.239238   843.189710   725.116251   81.109
112.034562   34.162111   245.626880   387.651294   80.838
79.012315   27.967896   403.026029   1158.719168   80.405
77.673320   39.950383   71.035654   1226.626281   80.361
119.790194   16.817712   655.581056   271.854539   79.856
74.309743   29.271230   370.645916   1268.832271   78.804
73.679517   2.823523   923.722089   1241.930794   77.222
63.024486   -41.628733   1932.699939   1667.259145   76.416
58.588589   -21.540587   1399.997822   1636.934474   76.219
124.109527   -5.063686   1081.672364   185.592888   74.688
111.814692   41.688192   15.215613   334.723835   74.457
91.001491   13.625204   716.912099   903.703539   73.773
78.902475   0.261189   972.941434   1137.498535   72.355
96.502335   41.077326   35.065951   753.911456   71.848
97.090634   36.451681   179.375757   751.275277   70.671
96.190684   24.665097   482.390353   791.919825   69.586
69.138061   5.877956   865.031562   1338.537037   69.355
86.695953   -7.945605   1130.235578   989.534053   69.090
127.248001   -17.313341   1325.852555   59.920771   69.034
86.477529   25.694743   457.686447   995.221867   67.894
102.739584   19.416056   598.865325   662.038086   67.598
81.132673   -19.567415   1362.941009   1107.432873   67.589
102.256195   18.657527   614.887462   673.507582   67.382
108.915443   13.100124   729.622190   541.030827   66.345
93.762574   20.715090   570.023720   845.828616   66.239
56.464731   3.063413   916.260926   1640.944017   65.953
84.901900   3.143222   919.280438   1021.545500   65.743
120.853914   4.819534   892.760811   272.082259   65.219
71.297365   -11.778042   1202.099270   1300.890570   65.130
81.875919   -35.254327   1743.250760   1120.342355   64.781
106.552534   -23.308389   1450.189916   577.283650   64.433
106.931430   -41.306658   1937.898073   492.108272   64.026
84.397992   21.294554   556.479933   1035.998268   63.431
126.749290   16.594470   661.325893   73.748706   63.386
81.241337   13.480648   718.648081   1094.763446   63.304
121.363892   40.214439   64.839112   48.309253   63.099
114.123047   11.237451   767.310679   427.185548   63.085
118.824129   -33.263793   1699.149687   214.191527   63.013
82.033052   -17.878253   1327.551337   1087.128989   61.921
101.183565   -12.990447   1231.573155   706.925308   61.433
111.844995   19.726710   593.300947   459.304871   60.591
82.522864   -32.249272   1661.329351   1098.489591   60.501
105.949271   30.968881   330.386454   558.147074   60.318
56.415743   16.503301   654.149385   1669.877857   60.172
54.728607   -30.260177   1601.581358   1812.699762   59.963
127.654734   7.069111   850.897269   76.991413   59.870
90.084335   -25.949093   1506.955654   927.495613   59.788
119.525182   -24.499764   1480.720399   251.595860   59.761
76.397304   20.690840   568.721932   1201.941860   59.634
103.797537   -34.906107   1739.801906   605.817109   59.611
65.436424   18.862638   606.412945   1444.193361   59.500
116.648785   1.094643   962.918457   379.198776   58.788
110.180617   37.643206   144.784852   414.100703   58.642
61.393810   27.419125   414.471566   1584.064316   58.434
124.433130   30.570244   342.489218   52.602032   58.425
105.824973   22.478837   532.663551   588.605256   58.370
84.584761   -42.098676   1956.873725   1071.086910   58.333
98.325056   10.364516   782.319163   762.300460   58.231
74.374222   -19.207629   1353.885011   1248.487207   57.884
92.689430   37.165191   158.031810   854.992355   57.831
120.145951   -35.701474   1768.124815   152.343983   57.376
73.313565   23.683664   502.434802   1275.567685   57.168
118.594091   32.436631   293.092756   216.833844   57.112
76.118936   -37.528740   1807.689048   1268.635009   56.822
100.387588   -35.722206   1762.030435   686.114405   55.986
107.530318   39.172114   97.393993   475.575782   55.822
109.569766   18.841016   611.866509   514.221911   55.813
109.055577   -36.211232   1778.954731   465.981702   55.583
113.879604   17.384492   642.982014   418.218323   55.582
114.264902   -19.799269   1374.962713   407.260318   55.300
106.128814   25.204584   470.948815   574.132619   54.127
112.258521   -14.008488   1254.200944   468.791360   53.806
94.780970   -17.288567   1317.775157   832.814195   53.799
122.763337   17.911441   633.245804   186.105518   53.548
56.203155   22.550031   525.647122   1703.506810   53.029
123.730364   -15.429291   1285.838746   173.267314   52.889
80.535923   12.489814   738.285019   1108.221458   52.275
70.262674   36.446814   177.769469   1401.067962   52.103
59.626745   -5.559407   1079.702170   1561.716659   51.251
87.061807   40.351656   58.524683   991.115259   51.179
97.199784   1.080286   960.103694   788.001840   51.073
104.673918   39.414291   89.565318   550.154241   51.065
88.778949   29.884474   356.563175   947.077510   50.805
80.164170   -31.008494   1628.388238   1149.161553   50.266
79.909002   27.537897   413.482878   1138.125475   49.448
108.423801   -39.653096   1884.070198   461.817523   49.338
102.030019   29.546731   366.158662   654.550755   47.614
109.605649   -8.254512   1140.128284   535.372239   47.175
76.561503   24.652084   480.792975   1205.853913   47.171
80.512496   -17.231101   1313.802433   1117.218490   46.806
85.294139   3.674399   909.256610   1014.040243   45.898
88.007226   -9.272391   1156.119233   964.780484   45.838
69.887941   -13.860657   1243.127503   1335.027772   11.515
126.130162   -2.837991   1039.615589   129.493677   8.923
47.070803   8.240542   815.756466   1936.327196   7.518
# File created at Fri Mar 25 07:50:22 2022 with IOLaueTools.py
# Calibration parameters
# dd     :   79.554
# xcen     :   979.45
# ycen     :   932.54
# xbet     :   0.387
# xgam     :   0.44
# pixelsize     :   0.0734
# CCDLabel     :   sCMOS