2theta chi X Y I
54.550024   17.462397   631.622557   1725.866595   62183.201
51.835113   -11.468783   1188.971959   1789.223790   54491.898
58.352344   2.793970   919.038027   1589.101971   39992.760
49.623016   3.065251   912.298349   1840.488191   36246.048
80.663641   16.995857   644.022319   1107.429163   33569.822
78.001537   27.316924   415.491261   1178.596916   31560.094
81.178328   1.967900   937.898263   1091.454242   31464.197
73.384705   -22.540765   1422.763649   1276.052072   30302.371
77.854853   -12.757699   1219.700742   1164.056156   25639.412
60.506803   -39.819183   1869.702399   1723.660734   25225.911
75.643802   -18.144463   1328.846510   1217.391050   21070.693
56.174794   27.435258   411.076647   1733.594244   19214.298
97.138872   13.260078   721.454688   782.126632   18680.657
81.092048   13.732601   710.428251   1096.456064   18280.745
94.859696   -10.611909   1180.180756   831.073458   16339.807
103.987039   0.791206   963.108948   652.808592   16126.467
101.802023   -20.142282   1376.280412   684.532155   14893.441
120.032162   -0.459483   989.302254   293.954296   14839.322
78.879503   -9.618139   1158.239658   1140.628048   13923.021
79.456515   22.651415   522.997261   1138.782843   13761.214
99.003115   1.089658   956.788493   751.360751   13527.234
105.790790   22.237421   534.188382   588.444397   13436.682
107.510086   -32.610870   1674.745081   521.019751   13408.592
71.063024   41.452867   18.568538   1411.609217   13300.536
91.279799   -30.866197   1624.620188   899.745938   12497.018
97.221826   34.531449   230.460620   751.446818   12495.855
64.245057   -35.651783   1746.060183   1569.671061   12014.624
113.629984   34.651661   227.727209   339.343016   11803.627
95.535403   27.203959   419.280108   801.470209   11167.657
90.795383   -23.811370   1454.893176   910.355273   11016.673
112.504322   -15.508236   1281.314570   457.862674   9146.878
115.504946   15.971779   668.441314   381.282030   8173.335
90.520775   34.491933   231.322321   906.478700   7621.805
123.611121   -16.976359   1314.221631   168.230496   7386.823
126.700970   15.415815   681.268100   78.070555   7164.834
95.775718   1.267432   953.003428   813.586725   7161.500
107.627838   0.548575   968.216033   578.071373   6672.188
119.373035   -22.242260   1426.283115   264.136401   6663.308
109.867195   12.759598   732.783563   518.980872   6478.208
63.329876   2.634591   922.843616   1466.295385   6415.995
123.527401   21.785561   545.839651   142.611917   6238.116
51.675261   -21.308427   1390.172324   1840.401540   6080.558
75.003269   34.425021   232.615696   1269.720066   5786.305
107.534549   -11.648284   1202.731088   574.404708   5520.000
84.638432   -30.291100   1608.278771   1045.618227   5447.555
93.889667   22.446942   528.618861   840.657868   4809.571
97.817547   -38.502114   1841.240997   738.966300   4064.394
109.405046   -39.952366   1891.159080   429.763327   3569.616
123.239098   -0.789698   996.167882   209.379571   3514.205
120.168905   26.955781   426.944050   209.077713   3482.707
119.502620   -34.412646   1728.067060   181.028387   3447.777
89.977127   -19.137261   1352.497676   926.568860   3422.095
115.184662   -26.455289   1521.890932   355.426658   3386.818
81.264598   11.624187   752.325219   1091.897935   3272.459
69.243645   -29.165773   1576.147730   1396.694510   2890.036
103.229002   34.566157   229.711786   608.194991   2517.711
79.449442   -7.574436   1118.835334   1127.952931   2478.769
90.195547   -42.209066   1959.773093   925.270113   2396.514
123.678379   -27.826912   1557.530273   105.699600   2216.208
97.218025   -31.445133   1641.118630   766.932939   1997.207
117.203591   -0.204922   983.981685   364.016627   1437.696
105.759929   10.743249   772.221618   609.975152   1242.610
76.751059   -41.024331   1915.015206   1267.555081   1159.234
115.476994   22.014193   539.971099   361.041482   1000.602
128.141258   11.700351   756.308688   47.078566   940.488
103.851838   -9.164945   1153.381572   653.392071   902.374
125.682080   -13.832713   1250.279261   118.908502   858.894
111.394693   -21.183218   1400.935912   469.350467   855.196
114.941780   10.282127   782.369731   407.817386   736.043
118.539661   -41.444086   1944.423715   139.040375   711.008
62.061454   22.848766   517.162469   1541.662250   614.072
112.708381   0.179082   975.974587   468.294944   580.390
# File created at Mon Jun 13 17:49:28 2022 with IOLaueTools.py
# Calibration parameters
# dd     :   79.583
# xcen     :   976.202
# ycen     :   931.883
# xbet     :   0.4411
# xgam     :   0.3921
# pixelsize     :   0.0734
# CCDLabel     :   sCMOS