2theta chi X Y I
54.556293   17.457199   631.730957   1725.659265   61107.299
51.832234   -11.473925   1189.071780   1789.328976   50970.429
58.354534   2.792310   919.069742   1589.044526   34972.851
49.625551   3.058558   912.425102   1840.401653   33059.502
80.668178   16.992153   644.099281   1107.334054   28413.411
81.179843   1.962293   938.004563   1091.425089   27474.834
78.004046   27.314027   415.560757   1178.534981   26735.001
73.384983   -22.546942   1422.900255   1276.062439   26548.051
77.854942   -12.764039   1219.826621   1164.061183   21618.686
75.644421   -18.152561   1329.015851   1217.392609   17701.988
56.177624   27.433940   411.108419   1733.498359   16844.533
97.143366   13.250642   721.643774   782.044439   16730.297
60.506327   -39.834857   1870.199891   1723.859603   15580.580
81.095100   13.729839   710.483872   1096.393627   15494.583
78.878818   -9.622382   1158.321993   1140.644933   15032.266
103.988867   0.783734   963.250883   652.773158   13940.906
94.857299   -10.616084   1180.262222   831.119282   13929.059
99.002000   1.082489   956.924227   751.383764   12257.398
79.464818   22.643643   523.170371   1138.596083   12022.268
64.237229   -35.654128   1746.124115   1569.912955   11846.891
107.507098   -32.618491   1674.948492   521.060624   11740.966
71.068956   41.451322   18.620399   1411.431593   11225.269
105.796168   22.230832   534.334617   588.341739   11069.778
101.806356   -20.153967   1376.532787   684.424268   10939.666
91.274160   -30.871814   1624.763084   899.869698   10454.175
120.033608   -0.471091   989.523176   293.917929   9859.949
113.634811   34.646250   227.879289   339.248607   9605.469
97.224611   34.526489   230.599162   751.392573   9552.792
90.798530   -23.818001   1455.043803   910.290318   9552.687
95.540170   27.198952   419.400253   801.373786   8787.892
115.504619   15.960611   668.670664   381.321802   7117.038
112.500122   -15.514230   1281.436375   457.947153   7014.614
90.522994   34.488067   231.430117   906.429041   6970.897
66.189795   2.220387   931.097078   1400.439692   6926.828
123.603403   -16.985507   1314.410201   168.417212   6647.390
95.778522   1.261090   953.123952   813.534116   6463.508
119.373443   -22.256135   1426.591843   264.061479   6295.787
107.622848   0.542420   968.332103   578.177006   6138.520
54.441184   23.805729   495.018290   1762.380915   6082.214
63.330298   2.630466   922.921604   1466.284187   5927.799
109.868246   12.752666   732.921936   518.969707   5822.037
123.532741   21.775483   546.062415   142.510085   5766.306
51.648961   2.698899   919.616319   1776.814309   5614.569
75.007196   34.421626   232.710047   1269.610414   5382.572
107.531107   -11.654047   1202.844525   574.471699   5338.314
84.633136   -30.294215   1608.356384   1045.739412   5233.973
51.667646   -21.311279   1390.231495   1840.667699   5133.850
126.701320   15.402470   681.541249   78.116071   5013.371
53.834705   -18.417912   1329.503562   1756.417512   4792.595
93.889595   22.442686   528.713182   840.662435   4428.155
97.813981   -38.504026   1841.299086   739.049741   3869.928
89.973176   -19.141576   1352.588416   926.648656   3558.119
53.113291   36.092627   184.597697   1917.993914   3522.204
68.344380   -34.633261   1718.818740   1449.930710   3421.779
109.406371   -39.961377   1891.451682   429.662180   3292.711
62.374382   18.746483   605.757619   1517.742978   3261.747
120.166313   26.949243   427.100204   209.194599   3226.849
115.183903   -26.459996   1522.002557   355.423697   3098.089
69.381039   39.962011   67.486875   1447.598185   3054.466
61.908873   -13.462088   1230.656961   1517.884829   2942.358
81.266057   11.621010   752.387976   1091.867636   2806.588
123.227381   -0.796483   996.294726   209.699443   2768.977
59.831368   -32.920349   1669.400603   1675.165539   2747.702
119.497365   -34.418213   1728.221338   181.140225   2730.794
69.238647   -29.168875   1576.222916   1396.832204   2673.138
79.955492   16.792089   648.164431   1121.624380   2654.766
103.229174   34.564700   229.752530   608.196508   2475.736
79.447446   -7.580700   1118.955470   1127.996034   2340.956
123.668822   -27.836289   1557.756026   105.928496   2162.841
97.214963   -31.447930   1641.190689   766.997781   2096.436
79.534504   -11.721374   1199.493008   1129.325293   2088.892
90.194987   -42.223652   1960.276150   925.286711   2044.921
59.873558   24.349712   483.262462   1607.460441   1819.953
64.407666   -20.493480   1376.132436   1478.531313   1471.162
95.373739   23.031700   515.712855   809.464576   1300.856
76.749388   -41.026876   1915.098836   1267.612709   1130.818
105.756695   10.740427   772.276684   610.046009   1111.660
96.683955   2.391431   931.808475   795.934678   1089.942
94.755326   -18.159304   1332.777097   830.981465   1070.427
117.204314   -0.209405   984.066981   363.999610   1068.270
115.479683   22.011087   540.039982   360.986381   1047.949
75.820951   -21.983088   1411.016152   1221.327500   1046.932
78.893882   20.640422   566.949912   1147.824897   1039.266
105.770789   20.028159   582.341994   594.135540   1013.834
76.527800   27.144853   419.508350   1211.042711   998.127
105.231333   -15.364410   1276.934090   618.741588   945.627
82.452848   -15.433053   1274.247467   1074.453816   859.696
103.854973   -9.170832   1153.496644   653.324356   852.871
78.381142   -15.535261   1275.589872   1156.611297   843.771
128.134986   11.688008   756.552522   47.317892   820.661
125.676010   -13.840734   1250.439833   119.062981   754.075
118.539250   -41.446559   1944.507720   139.024206   720.114
111.386308   -21.188232   1401.043619   469.533239   673.672
114.940823   10.270275   782.602010   407.860886   673.113
87.199672   35.385618   206.047269   983.291137   634.037
93.677153   2.417655   930.936021   853.442970   599.869
81.762453   28.299657   391.981898   1097.600181   589.660
86.244397   -30.293473   1608.740076   1010.249061   581.857
105.252846   4.165139   899.166944   625.920698   576.316
65.707822   -14.364169   1249.485672   1428.807626   549.477
74.037511   32.363995   288.412946   1285.069889   537.321
89.237232   18.345914   616.650376   936.282567   535.120
73.188212   -27.129171   1527.830697   1294.472351   528.208
60.748584   29.817731   353.167820   1615.763342   525.921
63.534510   15.012877   682.815523   1478.204972   519.820
92.339408   -11.961501   1206.344758   879.814645   515.360
86.886301   -22.892009   1433.437460   990.663413   497.695
112.989911   -10.017758   1171.632041   456.151675   497.066
116.971509   2.163630   938.928448   368.900113   484.477
66.189599   -10.800493   1179.064555   1410.353959   479.026
62.063432   22.847339   517.194344   1541.604376   459.626
101.133149   -43.433064   2006.924618   636.124105   449.328
112.212855   17.748677   631.260264   454.716970   440.874
111.732938   -13.236549   1235.150747   479.878728   436.107
91.338173   15.222129   681.351556   895.262143   430.757
109.699878   4.528510   892.818840   532.426542   426.351
112.715299   0.168651   976.173662   468.141714   422.669
108.587993   34.622393   228.343140   473.882446   420.087
87.605493   29.238802   369.200125   971.325449   393.324
125.070326   2.036796   942.730599   157.444272   386.401
120.620937   2.108181   940.578973   278.111057   379.025
92.559930   -39.359525   1866.410413   866.898923   375.371
70.701148   31.684266   306.097409   1363.746465   373.196
101.656758   2.335160   933.509091   699.000994   363.943
107.635844   -29.861590   1603.249754   529.211829   358.805
59.977328   -24.460943   1462.398243   1611.910930   355.973
86.815831   -24.208096   1463.040567   992.974990   319.562
90.952711   -10.331803   1174.072562   906.558251   317.040
110.244722   -38.647387   1849.949247   415.593318   315.483
122.091475   34.734777   225.772369   86.090682   311.186
97.495701   -26.792369   1525.485858   767.282989   310.649
98.363138   31.694749   307.145779   731.359337   310.644
108.661729   26.991660   425.212585   507.577211   310.107
48.934634   -13.479953   1227.778491   1890.130477   305.214
76.535207   -27.246024   1531.436745   1218.750099   279.026
93.544667   1.379719   950.592332   856.139873   277.549
101.606828   3.939666   903.000223   699.437603   277.291
65.287176   12.027167   742.613425   1430.323896   268.743
98.484213   -16.760335   1304.342248   756.653979   264.522
113.250156   -18.427994   1342.163549   433.274845   263.666
102.151687   -31.702262   1649.149968   653.174559   253.844
95.993382   3.586087   909.034731   808.919323   244.411
94.392275   23.576485   503.411269   829.368494   222.394
115.856075   -33.819445   1710.254879   293.186796   218.035
105.574539   2.307583   934.547994   620.124024   214.182
97.809573   39.794817   73.150826   723.530756   213.745
89.227794   -41.162397   1923.923149   949.431474   211.889
122.180619   5.700250   872.218404   233.753420   209.723
128.154147   -21.160719   1404.986317   7.036008   197.480
111.342734   2.240062   936.629762   497.966997   196.468
78.348784   2.722836   923.246813   1146.661209   195.741
96.804222   26.659061   432.343243   774.895327   194.983
69.339994   2.599488   924.383499   1331.284271   187.842
125.258315   30.433866   341.351564   24.480772   187.065
52.710222   36.178208   182.113324   1933.699564   184.154
124.412784   -26.142142   1517.254701   94.893235   183.610
62.635652   -41.679492   1931.351706   1677.488682   180.860
101.974962   16.365631   658.955714   681.258429   177.396
96.079055   -21.786004   1410.853291   802.037517   167.570
115.989394   -13.617855   1243.677750   379.353970   164.450
98.735215   -34.080007   1712.223376   727.130258   158.098
95.361237   37.974708   130.033317   788.536814   156.493
99.785227   39.035568   97.285830   676.353129   155.635
101.548167   -11.658539   1201.887618   698.490610   150.002
108.026238   14.868451   690.160146   555.536740   149.687
112.246982   22.946696   518.947102   437.095766   149.202
98.437755   -9.438446   1157.828128   761.532431   148.561
69.139039   -42.825162   1973.320760   1491.518000   143.981
107.634181   -10.290421   1176.006476   573.713699   142.153
97.551994   -24.348381   1468.547909   768.937847   140.767
101.353784   29.255777   369.542555   669.379924   138.002
95.759346   16.586856   653.822491   807.123644   135.063
113.498550   -26.458861   1521.513823   398.685406   132.354
92.068313   30.684652   332.978671   873.583375   131.235
110.306358   -21.566639   1409.089889   493.725523   127.040
62.896717   -25.480270   1486.524585   1539.107427   122.582
114.356906   31.063214   324.419935   343.665549   121.262
80.141115   -9.219482   1150.703773   1115.381081   120.731
90.234443   3.273813   914.267665   918.667357   117.598
124.660543   17.286606   642.344480   131.663049   115.791
111.024754   26.182546   444.580217   453.935879   115.422
89.750021   -29.281039   1584.176126   933.119885   104.789
98.977701   -37.246919   1803.381717   713.665408   103.987
83.462017   34.619906   227.502739   1069.259535   102.929
124.181318   -13.119150   1235.518778   165.103228   102.229
114.388454   20.180674   579.860372   395.104998   100.929
80.492884   14.262979   699.720488   1108.762539   100.719
105.304211   10.741103   772.212646   619.475067   98.349
82.119429   -36.934656   1788.989923   1116.617143   93.672
86.090835   39.628218   78.349832   1013.529311   89.894
117.537014   -10.350889   1179.054955   347.860744   88.359
116.936927   -28.042029   1560.644681   300.478085   87.984
110.577682   36.368441   178.402847   410.691526   83.358
# File created at Mon Jun 13 17:50:44 2022 with IOLaueTools.py
# Calibration parameters
# dd     :   79.583
# xcen     :   976.202
# ycen     :   931.883
# xbet     :   0.4411
# xgam     :   0.3921
# pixelsize     :   0.0734
# CCDLabel     :   sCMOS